 200 lines : SURF Flux in units of ph/sec-nm-mA-mm^2
 7 columns : Wavelength_nm  229_MeV 285_MeV 331_MeV 361_MeV 380_MeV 408_MeV
     0.100000      0.00000      0.00000  1.54143e-43  9.87670e-31  1.36384e-24
  1.58781e-17
     0.104300      0.00000      0.00000  2.76084e-41  5.28898e-29  4.09256e-23
  2.44485e-16
     0.108700      0.00000      0.00000  3.98699e-39  2.39934e-27  1.06528e-21
  3.35565e-15
     0.113300      0.00000      0.00000  4.68419e-37  9.28409e-26  2.41932e-20
  4.12492e-14
     0.118100      0.00000      0.00000  4.51480e-35  3.08387e-24  4.82045e-19
  4.56159e-13
     0.123200      0.00000      0.00000  3.59918e-33  8.84869e-23  8.47159e-18
  4.55787e-12
     0.128400      0.00000      0.00000  2.39155e-31  2.20641e-21  1.31998e-16
  4.13172e-11
     0.133900      0.00000      0.00000  1.33435e-29  4.80859e-20  1.83239e-15
  3.41173e-10
     0.139600      0.00000      0.00000  6.29653e-28  9.20971e-19  2.27705e-14
  2.57586e-09
     0.145500      0.00000      0.00000  2.53008e-26  1.55837e-17  2.54437e-13
  1.78478e-08
     0.151700      0.00000  1.40130e-45  8.71438e-25  2.34136e-16  2.56775e-12
  1.13884e-07
     0.158200      0.00000  2.52234e-43  2.58887e-23  3.13893e-15  2.34997e-11
  6.71477e-07
     0.164900      0.00000  4.29036e-41  6.67428e-22  3.77213e-14  1.95809e-10
  3.67016e-06
     0.171900      0.00000  5.89815e-39  1.50181e-20  4.08200e-13  1.49138e-09
  1.86536e-05
     0.179200      0.00000  6.60996e-37  2.96597e-19  3.99446e-12  1.04201e-08
  8.84229e-05
     0.186900      0.00000  6.08881e-35  5.16831e-18  3.54932e-11  6.70237e-08
  0.000392026
     0.194800      0.00000  4.64749e-33  7.98730e-17  2.87486e-10  3.98212e-07
   0.00163016
     0.203100      0.00000  2.96207e-31  1.10013e-15  2.13089e-09  2.19260e-06
   0.00637370
     0.211700      0.00000  1.58791e-29  1.35684e-14  1.45053e-08  1.12222e-05
    0.0234925
     0.220800      0.00000  7.21118e-28  1.50525e-13  9.09960e-08  5.35556e-05
    0.0818248
     0.230200      0.00000  2.79301e-26  1.50853e-12  5.27842e-07  0.000238976
     0.269943
     0.239900      0.00000  9.28588e-25  1.37143e-11  2.84010e-06  0.000999818
     0.845323
     0.250200      0.00000  2.66682e-23  1.13552e-10  1.42197e-05   0.00393243
      2.51812
     0.260800      0.00000  6.65544e-22  8.59567e-10  6.64374e-05    0.0145766
      7.15054
     0.271900      0.00000  1.45161e-20  5.97042e-09  0.000290506    0.0510465
      19.3928
     0.283500      0.00000  2.78229e-19  3.81874e-08   0.00119197     0.169273
      50.3265
     0.295500  1.40130e-45  4.71131e-18  2.25659e-07   0.00460136     0.532747
      125.196
     0.308100  3.26503e-43  7.08353e-17  1.23605e-06    0.0167535      1.59459
      299.072
     0.321200  5.24870e-41  9.50236e-16  6.29507e-06    0.0576709      4.54875
      687.171
     0.334900  6.83879e-39  1.14267e-14  2.98984e-05     0.188111      12.3904
      1521.09
     0.349200  7.27939e-37  1.23723e-13  0.000132802     0.582734      32.2890
      3248.64
     0.364000  6.38244e-35  1.21138e-12  0.000553177      1.71806      80.6477
      6704.38
     0.379500  4.64619e-33  1.07696e-11   0.00216662      4.82986      193.389
      13387.5
     0.395700  2.82955e-31  8.72786e-11   0.00799851      12.9742      446.007
      25903.6
     0.412500  1.45219e-29  6.47225e-10    0.0279008      33.3608      990.756
      48623.7
     0.430100  6.32462e-28  4.40778e-09    0.0921799      82.2620      2123.09
      88660.3
     0.448400  2.35322e-26  2.76637e-08     0.289061      194.851      4395.76
      157229.
     0.467400  7.52884e-25  1.60535e-07     0.862262      444.091      8805.33
      271458.
     0.487300  2.08379e-23  8.64146e-07      2.45164      975.392      17088.0
      456839.
     0.508100  5.01955e-22  4.32820e-06      6.65690      2067.72      32167.2
      750149.
     0.529700  1.05823e-20  2.02289e-05      17.2959      4236.61      58814.2
  1.20309e+06
     0.552200  1.96329e-19  8.84853e-05      43.0725      8401.92      104571.
  1.88641e+06
     0.575700  3.22224e-18  0.000363198      103.002      16149.2      180998.
  2.89435e+06
     0.600300  4.70140e-17   0.00140248      236.913      30122.5      305350.
  4.34961e+06
     0.625800  6.12812e-16   0.00510790      524.903      54591.8      502540.
  6.40745e+06
     0.652400  7.16863e-15    0.0175882      1122.11      96246.5      807776.
  9.26010e+06
     0.680200  7.55905e-14    0.0573867      2317.82      165245.  1.26924e+06
  1.31398e+07
     0.709100  7.21557e-13     0.177815      4632.22      276605.  1.95143e+06
  1.83200e+07
     0.739300  6.26064e-12     0.524367      8969.68      451870.  2.93820e+06
  2.51145e+07
     0.770800  4.95654e-11      1.47454      16850.9      721134.  4.33648e+06
  3.38773e+07
     0.803600  3.59414e-10      3.96182      30747.8  1.12536e+06  6.27834e+06
  4.49948e+07
     0.837800  2.39577e-09      10.1895      54562.5  1.71887e+06  8.92404e+06
  5.88776e+07
     0.873500  1.47288e-08      25.1302      94270.1  2.57181e+06  1.24626e+07
  7.59542e+07
     0.910600  8.37983e-08      59.5386      158749.  3.77262e+06  1.71124e+07
  9.66520e+07
     0.949400  4.42613e-07      135.720      260835.  5.43043e+06  2.31181e+07
  1.21388e+08
     0.989800  2.17685e-06      298.139      418578.  7.67598e+06  3.07478e+07
  1.50556e+08
      1.03190  9.99850e-06      632.137      656676.  1.06626e+07  4.02922e+07
  1.84483e+08
      1.07580  4.30076e-05      1295.42  1.00810e+06  1.45658e+07  5.20469e+07
  2.23454e+08
      1.12160  0.000173722      2569.54  1.51574e+06  1.95809e+07  6.63140e+07
  2.67685e+08
      1.16940  0.000660558      4939.49  2.23402e+06  2.59228e+07  8.33874e+07
  3.17293e+08
      1.21910   0.00237060      9214.91  3.23003e+06  3.38156e+07  1.03542e+08
  3.72265e+08
      1.27100   0.00804756      16703.1  4.58545e+06  4.34915e+07  1.27020e+08
  4.32510e+08
      1.32510    0.0259033      29451.8  6.39576e+06  5.51845e+07  1.54025e+08
  4.97837e+08
      1.38150    0.0792234      50572.3  8.77171e+06  6.91171e+07  1.84701e+08
  5.67899e+08
      1.44030     0.230710      84662.3  1.18369e+07  8.54954e+07  2.19147e+08
  6.42272e+08
      1.50160     0.641053      138322.  1.57273e+07  1.04498e+08  2.57360e+08
  7.20418e+08
      1.56550      1.70263      220771.  2.05878e+07  1.26270e+08  2.99276e+08
  8.01708e+08
      1.63210      4.33113      344554.  2.65675e+07  1.50911e+08  3.44782e+08
  8.85423e+08
      1.70160      10.5697      526332.  3.38188e+07  1.78465e+08  3.93632e+08
  9.70819e+08
      1.77400      24.7876      787590.  4.24879e+07  2.08948e+08  4.45553e+08
  1.05705e+09
      1.84950      55.9576  1.15546e+06  5.27111e+07  2.42273e+08  5.00136e+08
  1.14328e+09
      1.92820      121.784  1.66333e+06  6.46088e+07  2.78310e+08  5.56977e+08
  1.22865e+09
      2.01030      255.898  2.35143e+06  7.82815e+07  3.16881e+08  6.15589e+08
  1.31231e+09
      2.09580      519.933  3.26657e+06  9.38024e+07  3.57725e+08  6.75402e+08
  1.39354e+09
      2.18500      1022.85  4.46267e+06  1.11210e+08  4.00551e+08  7.35864e+08
  1.47143e+09
      2.27800      1950.78  5.99965e+06  1.30512e+08  4.45017e+08  7.96392e+08
  1.54521e+09
      2.37500      3611.84  7.94329e+06  1.51671e+08  4.90701e+08  8.56383e+08
  1.61450e+09
      2.47610      6499.37  1.03624e+07  1.74616e+08  5.37197e+08  9.15238e+08
  1.67853e+09
      2.58140      11380.2  1.33287e+07  1.99236e+08  5.84066e+08  9.72372e+08
  1.73679e+09
      2.69130      19412.0  1.69126e+07  2.25383e+08  6.30822e+08  1.02726e+09
  1.78889e+09
      2.80580      32289.0  2.11838e+07  2.52845e+08  6.77009e+08  1.07938e+09
  1.83457e+09
      2.92530      52430.2  2.62053e+07  2.81428e+08  7.22190e+08  1.12828e+09
  1.87358e+09
      3.04980      83189.3  3.20324e+07  3.10872e+08  7.65925e+08  1.17352e+09
  1.90578e+09
      3.17960      129102.  3.87088e+07  3.40916e+08  8.07776e+08  1.21481e+09
  1.93119e+09
      3.31490      196134.  4.62654e+07  3.71253e+08  8.47370e+08  1.25180e+09
  1.94967e+09
      3.45600      291984.  5.47168e+07  4.01606e+08  8.84366e+08  1.28428e+09
  1.96148e+09
      3.60300      426227.  6.40631e+07  4.31667e+08  9.18454e+08  1.31212e+09
  1.96686e+09
      3.75640      610652.  7.42831e+07  4.61143e+08  9.49392e+08  1.33518e+09
  1.96584e+09
      3.91630      859274.  8.53379e+07  4.89726e+08  9.76951e+08  1.35343e+09
  1.95865e+09
      4.08290  1.18847e+06  9.71673e+07  5.17172e+08  1.00099e+09  1.36691e+09
  1.94582e+09
      4.25670  1.61679e+06  1.09700e+08  5.43222e+08  1.02138e+09  1.37565e+09
  1.92773e+09
      4.43790  2.16483e+06  1.22838e+08  5.67615e+08  1.03808e+09  1.37979e+09
  1.90450e+09
      4.62670  2.85504e+06  1.36475e+08  5.90189e+08  1.05106e+09  1.37947e+09
  1.87679e+09
      4.82360  3.71075e+06  1.50492e+08  6.10749e+08  1.06033e+09  1.37490e+09
  1.84483e+09
      5.02890  4.75597e+06  1.64758e+08  6.29149e+08  1.06598e+09  1.36628e+09
  1.80929e+09
      5.24300  6.01443e+06  1.79131e+08  6.45276e+08  1.06809e+09  1.35389e+09
  1.77028e+09
      5.46610  7.50870e+06  1.93487e+08  6.59080e+08  1.06681e+09  1.33796e+09
  1.72832e+09
      5.69870  9.25924e+06  2.07665e+08  6.70481e+08  1.06228e+09  1.31879e+09
  1.68392e+09
      5.94130  1.12839e+07  2.21518e+08  6.79462e+08  1.05468e+09  1.29667e+09
  1.63747e+09
      6.19410  1.35962e+07  2.34948e+08  6.86055e+08  1.04422e+09  1.27189e+09
  1.58922e+09
      6.45770  1.62054e+07  2.47794e+08  6.90278e+08  1.03108e+09  1.24475e+09
  1.53956e+09
      6.73260  1.91148e+07  2.59942e+08  6.92194e+08  1.01552e+09  1.21554e+09
  1.48888e+09
      7.01910  2.23223e+07  2.71294e+08  6.91886e+08  9.97739e+08  1.18454e+09
  1.43755e+09
      7.31780  2.58205e+07  2.81769e+08  6.89433e+08  9.77958e+08  1.15204e+09
  1.38571e+09
      7.62930  2.95931e+07  2.91254e+08  6.84983e+08  9.56440e+08  1.11829e+09
  1.33374e+09
      7.95400  3.36207e+07  2.99715e+08  6.78633e+08  9.33379e+08  1.08355e+09
  1.28182e+09
      8.29250  3.78756e+07  3.07104e+08  6.70530e+08  9.09002e+08  1.04807e+09
  1.23025e+09
      8.64540  4.23238e+07  3.13373e+08  6.60802e+08  8.83521e+08  1.01205e+09
  1.17919e+09
      9.01340  4.69296e+07  3.18489e+08  6.49612e+08  8.57147e+08  9.75717e+08
  1.12883e+09
      9.39700  5.16523e+07  3.22484e+08  6.37091e+08  8.30074e+08  9.39258e+08
  1.07931e+09
      9.79690  5.64464e+07  3.25326e+08  6.23400e+08  8.02466e+08  9.02847e+08
  1.03077e+09
      10.2138  6.12649e+07  3.27080e+08  6.08670e+08  7.74500e+08  8.66647e+08
  9.83317e+08
      10.6485  6.60607e+07  3.27729e+08  5.93063e+08  7.46339e+08  8.30789e+08
  9.37071e+08
      11.1017  7.07882e+07  3.27339e+08  5.76726e+08  7.18130e+08  7.95385e+08
  8.92095e+08
      11.5742  7.53988e+07  3.25959e+08  5.59754e+08  6.89985e+08  7.60582e+08
  8.48467e+08
      12.0668  7.98487e+07  3.23620e+08  5.42296e+08  6.62036e+08  7.26461e+08
  8.06237e+08
      12.5804  8.40955e+07  3.20421e+08  5.24480e+08  6.34379e+08  6.93104e+08
  7.65432e+08
      13.1158  8.81004e+07  3.16394e+08  5.06405e+08  6.07127e+08  6.60558e+08
  7.26090e+08
      13.6740  9.18308e+07  3.11619e+08  4.88167e+08  5.80347e+08  6.28922e+08
  6.88210e+08
      14.2559  9.52542e+07  3.06162e+08  4.69881e+08  5.54119e+08  5.98228e+08
  6.51819e+08
      14.8627  9.83480e+07  3.00105e+08  4.51610e+08  5.28492e+08  5.68492e+08
  6.16904e+08
      15.4952  1.01091e+08  2.93511e+08  4.33470e+08  5.03530e+08  5.39763e+08
  5.83451e+08
      16.1547  1.03467e+08  2.86430e+08  4.15492e+08  4.79267e+08  5.12057e+08
  5.51448e+08
      16.8422  1.05468e+08  2.78960e+08  3.97757e+08  4.55735e+08  4.85390e+08
  5.20870e+08
      17.5590  1.07087e+08  2.71148e+08  3.80315e+08  4.32966e+08  4.59763e+08
  4.91690e+08
      18.3063  1.08324e+08  2.63044e+08  3.63231e+08  4.10977e+08  4.35159e+08
  4.63884e+08
      19.0854  1.09182e+08  2.54745e+08  3.46519e+08  3.89783e+08  4.11594e+08
  4.37412e+08
      19.8977  1.09669e+08  2.46268e+08  3.30230e+08  3.69402e+08  3.89036e+08
  4.12223e+08
      20.7445  1.09797e+08  2.37693e+08  3.14396e+08  3.49800e+08  3.67486e+08
  3.88304e+08
      21.6274  1.09578e+08  2.29053e+08  2.99033e+08  3.31010e+08  3.46925e+08
  3.65592e+08
      22.5478  1.09031e+08  2.20397e+08  2.84157e+08  3.13032e+08  3.27323e+08
  3.44060e+08
      23.5074  1.08173e+08  2.11757e+08  2.69768e+08  2.95817e+08  3.08663e+08
  3.23658e+08
      24.5079  1.07025e+08  2.03182e+08  2.55915e+08  2.79382e+08  2.90912e+08
  3.04333e+08
      25.5509  1.05611e+08  1.94705e+08  2.42565e+08  2.63694e+08  2.74039e+08
  2.86060e+08
      26.6384  1.03949e+08  1.86341e+08  2.29752e+08  2.48753e+08  2.58026e+08
  2.68776e+08
      27.7721  1.02069e+08  1.78124e+08  2.17441e+08  2.34526e+08  2.42841e+08
  2.52454e+08
      28.9541  9.99883e+07  1.70068e+08  2.05667e+08  2.21014e+08  2.28452e+08
  2.37030e+08
      30.1863  9.77325e+07  1.62203e+08  1.94380e+08  2.08168e+08  2.14827e+08
  2.22491e+08
      31.4710  9.53257e+07  1.54543e+08  1.83613e+08  1.95972e+08  2.01932e+08
  2.08774e+08
      32.8104  9.27890e+07  1.47097e+08  1.73333e+08  1.84409e+08  1.89735e+08
  1.95852e+08
      34.2068  9.01450e+07  1.39876e+08  1.63524e+08  1.73463e+08  1.78221e+08
  1.83675e+08
      35.6626  8.74134e+07  1.32890e+08  1.54198e+08  1.63085e+08  1.67340e+08
  1.72203e+08
      37.1804  8.46152e+07  1.26142e+08  1.45325e+08  1.53282e+08  1.57078e+08
  1.61412e+08
      38.7628  8.17667e+07  1.19637e+08  1.36894e+08  1.44012e+08  1.47400e+08
  1.51262e+08
      40.4125  7.88856e+07  1.13380e+08  1.28891e+08  1.35256e+08  1.38276e+08
  1.41715e+08
      42.1324  7.59884e+07  1.07368e+08  1.21300e+08  1.26989e+08  1.29682e+08
  1.32745e+08
      43.9256  7.30878e+07  1.01601e+08  1.14109e+08  1.19189e+08  1.21591e+08
  1.24317e+08
      45.7950  7.01987e+07  9.60792e+07  1.07298e+08  1.11836e+08  1.13974e+08
  1.16401e+08
      47.7440  6.73323e+07  9.07979e+07  1.00856e+08  1.04904e+08  1.06809e+08
  1.08969e+08
      49.7760  6.45000e+07  8.57520e+07  9.47638e+07  9.83756e+07  1.00073e+08
  1.01994e+08
      51.8944  6.17099e+07  8.09400e+07  8.90098e+07  9.22303e+07  9.37406e+07
  9.54484e+07
      54.1030  5.89702e+07  7.63538e+07  8.35758e+07  8.64471e+07  8.77902e+07
  8.93083e+07
      56.4056  5.62889e+07  7.19884e+07  7.84488e+07  8.10066e+07  8.22019e+07
  8.35520e+07
      58.8062  5.36726e+07  6.78374e+07  7.36140e+07  7.58909e+07  7.69547e+07
  7.81536e+07
      61.3089  5.11228e+07  6.38942e+07  6.90554e+07  7.10854e+07  7.20306e+07
  7.30953e+07
      63.9182  4.86478e+07  6.01524e+07  6.47631e+07  6.65690e+07  6.74086e+07
  6.83552e+07
      66.6385  4.62491e+07  5.66056e+07  6.07209e+07  6.23270e+07  6.30741e+07
  6.39141e+07
      69.4746  4.39284e+07  5.32438e+07  5.69158e+07  5.83465e+07  5.90091e+07
  5.97553e+07
      72.4314  4.16889e+07  5.00607e+07  5.33380e+07  5.46096e+07  5.51975e+07
  5.58596e+07
      75.5141  3.95321e+07  4.70514e+07  4.99730e+07  5.11034e+07  5.16263e+07
  5.22140e+07
      78.7279  3.74566e+07  4.42061e+07  4.68094e+07  4.78147e+07  4.82792e+07
  4.87995e+07
      82.0785  3.54639e+07  4.15183e+07  4.38374e+07  4.47307e+07  4.51432e+07
  4.56056e+07
      85.5717  3.35525e+07  3.89800e+07  4.10474e+07  4.18399e+07  4.22053e+07
  4.26158e+07
      89.2136  3.17238e+07  3.65861e+07  3.84262e+07  3.91310e+07  3.94558e+07
  3.98198e+07
      93.0105  2.99747e+07  3.43287e+07  3.59674e+07  3.65926e+07  3.68801e+07
  3.72034e+07
      96.9689  2.83052e+07  3.22013e+07  3.36596e+07  3.42151e+07  3.44700e+07
  3.47563e+07
      101.096  2.67120e+07  3.01972e+07  3.14948e+07  3.19869e+07  3.22143e+07
  3.24671e+07
      105.398  2.51952e+07  2.83117e+07  2.94648e+07  2.99016e+07  3.01030e+07
  3.03268e+07
      109.884  2.37514e+07  2.65366e+07  2.75614e+07  2.79496e+07  2.81266e+07
  2.83263e+07
      114.561  2.23791e+07  2.48655e+07  2.57766e+07  2.61209e+07  2.62801e+07
  2.64554e+07
      119.436  2.10767e+07  2.32967e+07  2.41055e+07  2.44108e+07  2.45505e+07
  2.47077e+07
      124.520  1.98392e+07  2.18205e+07  2.25399e+07  2.28111e+07  2.29346e+07
  2.30729e+07
      129.819  1.86666e+07  2.04352e+07  2.10734e+07  2.13138e+07  2.14226e+07
  2.15459e+07
      135.344  1.75574e+07  1.91327e+07  1.96995e+07  1.99122e+07  2.00097e+07
  2.01190e+07
      141.104  1.65066e+07  1.79098e+07  1.84149e+07  1.86033e+07  1.86893e+07
  1.87845e+07
      147.109  1.55119e+07  1.67632e+07  1.72098e+07  1.73771e+07  1.74534e+07
  1.75386e+07
      153.370  1.45724e+07  1.56872e+07  1.60839e+07  1.62320e+07  1.62988e+07
  1.63747e+07
      159.898  1.36852e+07  1.46778e+07  1.50297e+07  1.51610e+07  1.52207e+07
  1.52879e+07
      166.703  1.28477e+07  1.37312e+07  1.40435e+07  1.41596e+07  1.42125e+07
  1.42716e+07
      173.798  1.20578e+07  1.28438e+07  1.31207e+07  1.32237e+07  1.32706e+07
  1.33233e+07
      181.194  1.13130e+07  1.20123e+07  1.22579e+07  1.23490e+07  1.23904e+07
  1.24369e+07
      188.906  1.06111e+07  1.12331e+07  1.14507e+07  1.15314e+07  1.15681e+07
  1.16092e+07
      196.946  9.95011e+06  1.05031e+07  1.06960e+07  1.07675e+07  1.08000e+07
  1.08364e+07
      205.327  9.32794e+06  9.81937e+06  9.99038e+06  1.00537e+07  1.00825e+07
  1.01146e+07
      214.066  8.74248e+06  9.17918e+06  9.33070e+06  9.38673e+06  9.41223e+06
  9.44064e+06
      223.177  8.19193e+06  8.57975e+06  8.71406e+06  8.76375e+06  8.78616e+06
  8.81137e+06
      232.675  7.67419e+06  8.01881e+06  8.13785e+06  8.18170e+06  8.20151e+06
  8.22393e+06
      242.577  7.18779e+06  7.49376e+06  7.59916e+06  7.63798e+06  7.65552e+06
  7.67537e+06
      252.901  6.73079e+06  7.00249e+06  7.09587e+06  7.13014e+06  7.14573e+06
  7.16325e+06
      263.665  6.30172e+06  6.54289e+06  6.62556e+06  6.65592e+06  6.66973e+06
  6.68513e+06
      274.886  5.89896e+06  6.11285e+06  6.18609e+06  6.21289e+06  6.22507e+06
  6.23884e+06
      286.585  5.52089e+06  5.71074e+06  5.77554e+06  5.79925e+06  5.81013e+06
  5.82219e+06
      298.782  5.16620e+06  5.33461e+06  5.39194e+06  5.41305e+06  5.42264e+06
  5.43326e+06
      311.498  4.83360e+06  4.98301e+06  5.03368e+06  5.05236e+06  5.06080e+06
  5.07024e+06
      324.755  4.52179e+06  4.65414e+06  4.69913e+06  4.71553e+06  4.72300e+06
  4.73136e+06
      338.577  4.22930e+06  4.34672e+06  4.38650e+06  4.40112e+06  4.40778e+06
  4.41518e+06
      352.986  3.95532e+06  4.05943e+06  4.09467e+06  4.10750e+06  4.11334e+06
  4.11992e+06
      368.009  3.69873e+06  3.79097e+06  3.82215e+06  3.83352e+06  3.83856e+06
  3.84442e+06
      383.671  3.45821e+06  3.54006e+06  3.56751e+06  3.57758e+06  3.58212e+06
  3.58727e+06
      400.000  3.23312e+06  3.30555e+06  3.32991e+06  3.33884e+06  3.34274e+06
  3.34731e+06
